Frequency(Hz)	RPM Value(RPM)	Equivalent Radiated Power Level(dB)	
8.3333	500.	-25.542	
16.667	500.	-19.519	
25.	500.	-15.993	
33.333	500.	23.013	
41.667	500.	-11.545	
50.	500.	-9.9539	
58.333	500.	-8.6038	
66.667	500.	50.666	
75.	500.	-6.406	
83.333	500.	-5.4715	
91.667	500.	-4.6288	
100.	500.	32.287	
108.33	500.	-3.1436	
116.67	500.	-2.4805	
125.	500.	-1.86	
133.33	500.	51.722	
141.67	500.	-0.67588	
150.	500.	-0.20407	
158.33	500.	0.29185	
166.67	500.	29.61	
175.	500.	1.2218	
183.33	500.	1.6578	
191.67	500.	2.0777	
200.	500.	45.134	
208.33	500.	2.8755	
216.67	500.	3.2553	
225.	500.	3.6247	
233.33	500.	37.034	
241.67	500.	4.329	
250.	500.	4.6753	
258.33	500.	5.0219	
266.67	500.	56.477	
275.	500.	5.6512	
283.33	500.	5.9721	
291.67	500.	6.2816	
300.	500.	39.804	
308.33	500.	6.8878	
316.67	500.	7.1845	
325.	500.	7.4784	
333.33	500.	61.171	
341.67	500.	8.0355	
350.	500.	8.3425	
358.33	500.	8.6365	
366.67	500.	45.853	
375.	500.	9.1807	
383.33	500.	9.4689	
391.67	500.	9.7479	
400.	500.	66.169	
408.33	500.	10.306	
416.67	500.	10.585	
425.	500.	10.866	
433.33	500.	50.345	
441.67	500.	11.456	
450.	500.	11.713	
458.33	500.	11.989	
466.67	500.	51.933	
475.	500.	12.592	
483.33	500.	12.874	
491.67	500.	13.171	
500.	500.	47.598	
508.33	500.	13.781	
516.67	500.	14.092	
525.	500.	14.41	
533.33	500.	50.059	
541.67	500.	15.04	
550.	500.	15.402	
558.33	500.	15.75	
566.67	500.	49.472	
575.	500.	16.466	
583.33	500.	16.845	
591.67	500.	17.233	
600.	500.	54.71	
608.33	500.	18.051	
616.67	500.	18.483	
625.	500.	18.934	
633.33	500.	39.369	
641.67	500.	19.895	
650.	500.	20.416	
658.33	500.	20.974	
666.67	500.	81.011	
675.	500.	22.118	
683.33	500.	22.815	
691.67	500.	23.522	
700.	500.	55.311	
708.33	500.	25.12	
716.67	500.	26.036	
725.	500.	27.053	
733.33	500.	71.144	
741.67	500.	29.432	
750.	500.	31.043	
758.33	500.	32.894	
766.67	500.	64.144	
775.	500.	38.395	
783.33	500.	43.406	
791.67	500.	56.252	
800.	500.	95.337	
808.33	500.	41.165	
816.67	500.	37.2	
825.	500.	34.517	
833.33	500.	59.929	
16.667	1000.	-16.553	
33.333	1000.	-10.523	
50.	1000.	-6.9847	
66.667	1000.	28.242	
83.334	1000.	-2.4953	
100.	1000.	-0.87518	
116.67	1000.	0.50719	
133.33	1000.	56.774	
150.	1000.	2.798	
166.67	1000.	3.7784	
183.33	1000.	4.6691	
200.	1000.	38.601	
216.67	1000.	6.2992	
233.33	1000.	7.0397	
250.	1000.	7.7278	
266.67	1000.	58.432	
283.33	1000.	9.0726	
300.	1000.	9.7045	
316.67	1000.	10.32	
333.33	1000.	36.607	
350.	1000.	11.517	
366.67	1000.	12.104	
383.33	1000.	12.711	
400.	1000.	51.8	
416.67	1000.	13.852	
433.33	1000.	14.439	
450.	1000.	15.038	
466.67	1000.	45.229	
483.33	1000.	16.249	
500.	1000.	16.879	
516.67	1000.	17.552	
533.33	1000.	66.327	
550.	1000.	18.902	
566.67	1000.	19.637	
583.33	1000.	20.393	
600.	1000.	50.729	
616.67	1000.	22.118	
633.33	1000.	23.073	
650.	1000.	24.139	
666.67	1000.	76.314	
683.33	1000.	26.581	
700.	1000.	28.082	
716.67	1000.	29.887	
733.33	1000.	66.404	
750.	1000.	34.911	
766.67	1000.	39.113	
783.33	1000.	47.117	
800.	1000.	106.15	
816.67	1000.	41.096	
833.34	1000.	36.379	
850.	1000.	33.359	
866.67	1000.	67.459	
883.34	1000.	29.552	
900.	1000.	28.186	
916.67	1000.	27.011	
933.34	1000.	62.219	
950.	1000.	25.258	
966.67	1000.	24.546	
983.34	1000.	23.92	
1000.	1000.	53.951	
1016.7	1000.	22.954	
1033.3	1000.	22.561	
1050.	1000.	22.271	
1066.7	1000.	53.281	
1083.3	1000.	21.774	
1100.	1000.	21.624	
1116.7	1000.	21.524	
1133.3	1000.	49.111	
1150.	1000.	21.466	
1166.7	1000.	21.507	
1183.3	1000.	21.541	
1200.	1000.	54.301	
1216.7	1000.	21.898	
1233.3	1000.	22.1	
1250.	1000.	22.342	
1266.7	1000.	50.173	
1283.3	1000.	22.991	
1300.	1000.	23.38	
1316.7	1000.	23.825	
1333.3	1000.	71.613	
1350.	1000.	25.057	
1366.7	1000.	34.61	
1383.3	1000.	25.374	
1400.	1000.	64.058	
1416.7	1000.	26.997	
1433.3	1000.	27.829	
1450.	1000.	28.704	
1466.7	1000.	61.975	
1483.3	1000.	30.907	
1500.	1000.	32.256	
1516.7	1000.	33.899	
1533.3	1000.	69.855	
1550.	1000.	40.037	
1566.7	1000.	34.502	
1583.3	1000.	39.999	
1600.	1000.	74.848	
1616.7	1000.	78.176	
1633.3	1000.	48.398	
1650.	1000.	42.419	
1666.7	1000.	63.822	
25.	1500.	-15.923	
50.	1500.	-9.8827	
75.	1500.	-6.3285	
100.	1500.	31.597	
125.	1500.	-1.7865	
150.	1500.	-0.12941	
175.	1500.	1.2978	
200.	1500.	60.504	
225.	1500.	3.7045	
250.	1500.	4.7572	
275.	1500.	5.7415	
300.	1500.	43.573	
325.	1500.	7.5685	
350.	1500.	8.4358	
375.	1500.	9.286	
400.	1500.	63.143	
425.	1500.	10.971	
450.	1500.	11.823	
475.	1500.	12.694	
500.	1500.	43.747	
525.	1500.	14.535	
550.	1500.	15.533	
575.	1500.	16.605	
600.	1500.	56.918	
625.	1500.	19.083	
650.	1500.	20.571	
675.	1500.	22.319	
700.	1500.	58.162	
725.	1500.	27.226	
750.	1500.	31.22	
775.	1500.	38.583	
800.	1500.	101.14	
825.	1500.	34.697	
850.	1500.	29.713	
875.	1500.	26.705	
900.	1500.	55.584	
925.	1500.	23.175	
950.	1500.	21.894	
975.	1500.	21.005	
1000.	1500.	73.615	
1025.	1500.	19.877	
1050.	1500.	19.571	
1075.	1500.	19.407	
1100.	1500.	54.596	
1125.	1500.	19.441	
1150.	1500.	19.613	
1175.	1500.	19.875	
1200.	1500.	71.286	
1225.	1500.	20.643	
1250.	1500.	21.143	
1275.	1500.	21.72	
1300.	1500.	56.015	
1325.	1500.	23.158	
1350.	1500.	24.209	
1375.	1500.	23.892	
1400.	1500.	62.2	
1425.	1500.	26.708	
1450.	1500.	28.071	
1475.	1500.	29.663	
1500.	1500.	54.727	
1525.	1500.	34.27	
1550.	1500.	39.41	
1575.	1500.	35.967	
1600.	1500.	76.489	
1625.	1500.	53.982	
1650.	1500.	41.851	
1675.	1500.	37.167	
1700.	1500.	52.335	
1725.	1500.	32.146	
1750.	1500.	30.528	
1775.	1500.	29.251	
1800.	1500.	60.494	
1825.	1500.	27.29	
1850.	1500.	26.558	
1875.	1500.	25.959	
1900.	1500.	55.109	
1925.	1500.	25.1	
1950.	1500.	24.824	
1975.	1500.	24.645	
2000.	1500.	69.186	
2025.	1500.	24.57	
2050.	1500.	24.674	
2075.	1500.	24.873	
2100.	1500.	61.166	
2125.	1500.	25.571	
2150.	1500.	26.078	
2175.	1500.	26.7	
2200.	1500.	61.525	
2225.	1500.	28.342	
2250.	1500.	29.404	
2275.	1500.	30.675	
2300.	1500.	59.624	
2325.	1500.	34.142	
2350.	1500.	36.655	
2375.	1500.	40.23	
2400.	1500.	80.669	
2425.	1500.	76.337	
2450.	1500.	45.95	
2475.	1500.	40.112	
2500.	1500.	52.022	
33.333	2000.	-13.134	
66.667	2000.	-7.0789	
100.	2000.	-3.4991	
133.33	2000.	35.225	
166.67	2000.	1.1272	
200.	2000.	2.846	
233.33	2000.	4.3534	
266.67	2000.	63.125	
300.	2000.	6.9448	
333.33	2000.	8.144	
366.67	2000.	9.2873	
400.	2000.	46.26	
433.33	2000.	11.537	
466.67	2000.	12.682	
500.	2000.	13.875	
533.33	2000.	67.951	
566.67	2000.	16.536	
600.	2000.	18.056	
633.33	2000.	19.833	
666.67	2000.	50.28	
700.	2000.	24.731	
733.33	2000.	28.648	
766.67	2000.	35.682	
800.	2000.	84.918	
833.33	2000.	32.946	
866.67	2000.	27.86	
900.	2000.	24.901	
933.33	2000.	55.688	
966.67	2000.	21.579	
1000.	2000.	20.67	
1033.3	2000.	20.1	
1066.7	2000.	70.254	
1100.	2000.	19.759	
1133.3	2000.	19.878	
1166.7	2000.	20.183	
1200.	2000.	53.866	
1233.3	2000.	21.235	
1266.7	2000.	21.964	
1300.	2000.	22.841	
1333.3	2000.	68.006	
1366.7	2000.	34.066	
1400.	2000.	25.958	
1433.3	2000.	27.632	
1466.7	2000.	61.176	
1500.	2000.	32.133	
1533.3	2000.	35.974	
1566.7	2000.	34.34	
1600.	2000.	78.081	
1633.3	2000.	48.323	
1666.7	2000.	38.956	
1700.	2000.	34.751	
1733.3	2000.	62.526	
1766.7	2000.	30.077	
1800.	2000.	28.67	
1833.3	2000.	27.478	
1866.7	2000.	62.718	
1900.	2000.	25.805	
1933.3	2000.	25.304	
1966.7	2000.	24.948	
2000.	2000.	47.096	
2033.3	2000.	24.731	
2066.7	2000.	24.871	
2100.	2000.	25.187	
2133.3	2000.	62.041	
2166.7	2000.	26.296	
2200.	2000.	27.312	
2233.3	2000.	28.5	
2266.7	2000.	51.25	
2300.	2000.	31.992	
2333.3	2000.	34.656	
2366.7	2000.	38.613	
2400.	2000.	80.47	
2433.3	2000.	54.698	
2466.7	2000.	41.396	
2500.	2000.	36.435	
2533.3	2000.	61.785	
2566.7	2000.	32.576	
2600.	2000.	30.473	
2633.3	2000.	32.15	
2666.7	2000.	80.659	
2700.	2000.	28.234	
2733.3	2000.	26.793	
2766.7	2000.	25.815	
2800.	2000.	63.333	
2833.3	2000.	24.928	
2866.7	2000.	24.8	
2900.	2000.	24.879	
2933.3	2000.	62.628	
2966.7	2000.	25.733	
3000.	2000.	26.652	
3033.3	2000.	27.953	
3066.7	2000.	63.926	
3100.	2000.	32.472	
3133.3	2000.	36.858	
3166.7	2000.	47.918	
3200.	2000.	92.354	
3233.3	2000.	41.742	
3266.7	2000.	34.967	
3300.	2000.	31.913	
3333.3	2000.	58.06	
41.667	2500.	-8.5774	
83.333	2500.	-2.4952	
125.	2500.	1.1309	
166.67	2500.	36.877	
208.33	2500.	5.9131	
250.	2500.	7.7455	
291.67	2500.	9.3912	
333.33	2500.	65.351	
375.	2500.	12.396	
416.67	2500.	13.852	
458.33	2500.	15.327	
500.	2500.	50.101	
541.67	2500.	18.548	
583.33	2500.	20.412	
625.	2500.	22.581	
666.67	2500.	75.013	
708.33	2500.	28.93	
750.	2500.	34.911	
791.67	2500.	60.154	
833.33	2500.	59.795	
875.	2500.	30.348	
916.67	2500.	27.053	
958.33	2500.	24.899	
1000.	2500.	62.831	
1041.7	2500.	22.371	
1083.3	2500.	21.776	
1125.	2500.	21.491	
1166.7	2500.	53.925	
1208.3	2500.	21.8	
1250.	2500.	22.357	
1291.7	2500.	23.181	
1333.3	2500.	72.318	
1375.	2500.	24.675	
1416.7	2500.	26.999	
1458.3	2500.	29.197	
1500.	2500.	64.592	
1541.7	2500.	37.648	
1583.3	2500.	40.087	
1625.	2500.	54.596	
1666.7	2500.	76.841	
1708.3	2500.	34.079	
1750.	2500.	31.133	
1791.7	2500.	31.422	
1833.3	2500.	59.924	
1875.	2500.	26.562	
1916.7	2500.	25.812	
1958.3	2500.	25.37	
2000.	2500.	68.531	
2041.7	2500.	25.202	
2083.3	2500.	25.543	
2125.	2500.	26.157	
2166.7	2500.	55.64	
2208.3	2500.	28.343	
2250.	2500.	30.039	
2291.7	2500.	32.327	
2333.3	2500.	67.529	
2375.	2500.	40.94	
2416.7	2500.	57.282	
2458.3	2500.	44.282	
2500.	2500.	59.133	
2541.7	2500.	33.368	
2583.3	2500.	31.877	
2625.	2500.	30.146	
2666.7	2500.	72.358	
2708.3	2500.	26.984	
2750.	2500.	26.433	
2791.7	2500.	25.536	
2833.3	2500.	56.967	
2875.	2500.	24.405	
2916.7	2500.	24.117	
2958.3	2500.	24.032	
3000.	2500.	68.986	
3041.7	2500.	25.089	
3083.3	2500.	26.67	
3125.	2500.	29.859	
3166.7	2500.	76.321	
3208.3	2500.	56.789	
3250.	2500.	34.597	
3291.7	2500.	29.081	
3333.3	2500.	87.027	
3375.	2500.	24.833	
3416.7	2500.	23.359	
3458.3	2500.	22.388	
3500.	2500.	62.152	
3541.7	2500.	21.108	
3583.3	2500.	20.681	
3625.	2500.	20.373	
3666.7	2500.	63.334	
3708.3	2500.	19.943	
3750.	2500.	19.87	
3791.7	2500.	19.91	
3833.3	2500.	57.78	
3875.	2500.	20.657	
3916.7	2500.	23.245	
3958.3	2500.	23.459	
4000.	2500.	69.297	
4041.7	2500.	31.402	
4083.3	2500.	41.752	
4125.	2500.	27.445	
4166.7	2500.	90.511	
50.	3000.	-9.5809	
100.	3000.	-3.4825	
150.	3000.	0.17154	
200.	3000.	37.961	
250.	3000.	5.0563	
300.	3000.	6.9717	
350.	3000.	8.7315	
400.	3000.	67.42	
450.	3000.	12.113	
500.	3000.	13.881	
550.	3000.	15.816	
600.	3000.	55.127	
650.	3000.	20.846	
700.	3000.	24.725	
750.	3000.	31.488	
800.	3000.	102.16	
850.	3000.	29.987	
900.	3000.	24.898	
950.	3000.	22.202	
1000.	3000.	51.477	
1050.	3000.	19.943	
1100.	3000.	19.777	
1150.	3000.	20.055	
1200.	3000.	66.407	
1250.	3000.	21.641	
1300.	3000.	22.903	
1350.	3000.	24.748	
1400.	3000.	59.424	
1450.	3000.	28.636	
1500.	3000.	32.198	
1550.	3000.	39.987	
1600.	3000.	94.899	
1650.	3000.	42.434	
1700.	3000.	34.819	
1750.	3000.	31.081	
1800.	3000.	62.143	
1850.	3000.	27.038	
1900.	3000.	25.899	
1950.	3000.	25.175	
2000.	3000.	67.865	
2050.	3000.	24.853	
2100.	3000.	25.263	
2150.	3000.	26.09	
2200.	3000.	63.49	
2250.	3000.	29.298	
2300.	3000.	32.077	
2350.	3000.	36.492	
2400.	3000.	81.963	
2450.	3000.	45.78	
2500.	3000.	36.533	
2550.	3000.	33.739	
2600.	3000.	67.655	
2650.	3000.	45.429	
2700.	3000.	29.204	
2750.	3000.	26.656	
2800.	3000.	66.921	
2850.	3000.	24.903	
2900.	3000.	24.817	
2950.	3000.	25.252	
3000.	3000.	52.731	
3050.	3000.	28.391	
3100.	3000.	32.009	
3150.	3000.	40.035	
3200.	3000.	81.226	
3250.	3000.	37.118	
3300.	3000.	31.509	
3350.	3000.	29.06	
3400.	3000.	62.621	
3450.	3000.	24.925	
3500.	3000.	23.799	
3550.	3000.	22.93	
3600.	3000.	65.877	
3650.	3000.	21.702	
3700.	3000.	21.285	
3750.	3000.	20.99	
3800.	3000.	58.374	
3850.	3000.	20.926	
3900.	3000.	21.651	
3950.	3000.	23.556	
4000.	3000.	77.077	
4050.	3000.	33.833	
4100.	3000.	33.136	
4150.	3000.	31.284	
4200.	3000.	78.798	
4250.	3000.	25.413	
4300.	3000.	27.131	
4350.	3000.	27.467	
4400.	3000.	86.279	
4450.	3000.	32.037	
4500.	3000.	24.207	
4550.	3000.	21.869	
4600.	3000.	75.679	
4650.	3000.	21.947	
4700.	3000.	20.76	
4750.	3000.	20.818	
4800.	3000.	71.403	
4850.	3000.	21.404	
4900.	3000.	22.101	
4950.	3000.	23.553	
5000.	3000.	66.466	
58.333	3500.	-8.5259	
116.67	3500.	-2.3986	
175.	3500.	1.3063	
233.33	3500.	39.554	
291.67	3500.	6.3763	
350.	3500.	8.4442	
408.33	3500.	10.42	
466.67	3500.	69.364	
525.	3500.	14.535	
583.33	3500.	16.992	
641.67	3500.	20.059	
700.	3500.	61.97	
758.33	3500.	33.08	
816.67	3500.	37.389	
875.	3500.	26.713	
933.33	3500.	75.515	
991.67	3500.	20.568	
1050.	3500.	19.581	
1108.3	3500.	19.39	
1166.7	3500.	49.179	
1225.	3500.	20.657	
1283.3	3500.	21.943	
1341.7	3500.	23.805	
1400.	3500.	72.702	
1458.3	3500.	28.584	
1516.7	3500.	33.285	
1575.	3500.	35.983	
1633.3	3500.	81.723	
1691.7	3500.	35.142	
1750.	3500.	30.542	
1808.3	3500.	27.819	
1866.7	3500.	73.993	
1925.	3500.	25.132	
1983.3	3500.	24.613	
2041.7	3500.	24.633	
2100.	3500.	60.988	
2158.3	3500.	26.271	
2216.7	3500.	28.023	
2275.	3500.	30.669	
2333.3	3500.	77.837	
2391.7	3500.	43.798	
2450.	3500.	45.942	
2508.3	3500.	35.792	
2566.7	3500.	73.636	
2625.	3500.	30.803	
2683.3	3500.	29.862	
2741.7	3500.	26.585	
2800.	3500.	77.587	
2858.3	3500.	25.042	
2916.7	3500.	25.292	
2975.	3500.	26.316	
3033.3	3500.	66.165	
3091.7	3500.	32.196	
3150.	3500.	41.208	
3208.3	3500.	58.89	
3266.7	3500.	77.101	
3325.	3500.	38.535	
3383.3	3500.	27.929	
3441.7	3500.	25.923	
3500.	3500.	52.55	
3558.3	3500.	23.492	
3616.7	3500.	22.687	
3675.	3500.	22.063	
3733.3	3500.	59.173	
3791.7	3500.	21.242	
3850.	3500.	21.203	
3908.3	3500.	21.979	
3966.7	3500.	58.563	
4025.	3500.	27.293	
4083.3	3500.	41.446	
4141.7	3500.	26.657	
4200.	3500.	77.257	
4258.3	3500.	25.446	
4316.7	3500.	31.278	
4375.	3500.	31.639	
4433.3	3500.	83.315	
4491.7	3500.	26.797	
4550.	3500.	23.022	
4608.3	3500.	26.617	
4666.7	3500.	74.006	
4725.	3500.	21.248	
4783.3	3500.	21.402	
4841.7	3500.	21.836	
4900.	3500.	65.788	
4958.3	3500.	30.704	
5016.7	3500.	30.252	
5075.	3500.	31.883	
5133.3	3500.	74.687	
5191.7	3500.	25.75	
5250.	3500.	26.849	
5308.3	3500.	28.694	
5366.7	3500.	71.064	
5425.	3500.	35.651	
5483.3	3500.	45.403	
5541.7	3500.	44.826	
5600.	3500.	81.316	
5658.3	3500.	32.93	
5716.7	3500.	31.211	
5775.	3500.	31.703	
5833.3	3500.	63.644	
66.667	4000.	-4.2502	
133.33	4000.	1.9295	
200.	4000.	5.7259	
266.67	4000.	41.129	
333.33	4000.	11.13	
400.	4000.	13.472	
466.67	4000.	15.833	
533.33	4000.	71.378	
600.	4000.	21.424	
666.67	4000.	25.46	
733.33	4000.	32.223	
800.	4000.	85.546	
866.67	4000.	31.423	
933.33	4000.	26.29	
1000.	4000.	23.628	
1066.7	4000.	71.596	
1133.3	4000.	21.801	
1200.	4000.	22.107	
1266.7	4000.	23.09	
1333.3	4000.	50.569	
1400.	4000.	26.717	
1466.7	4000.	30.285	
1533.3	4000.	36.675	
1600.	4000.	93.955	
1666.7	4000.	39.56	
1733.3	4000.	32.692	
1800.	4000.	29.323	
1866.7	4000.	59.638	
1933.3	4000.	25.949	
2000.	4000.	25.402	
2066.7	4000.	25.523	
2133.3	4000.	71.353	
2200.	4000.	28.011	
2266.7	4000.	30.76	
2333.3	4000.	35.42	
2400.	4000.	77.962	
2466.7	4000.	42.25	
2533.3	4000.	34.051	
2600.	4000.	31.171	
2666.7	4000.	88.1	
2733.3	4000.	27.257	
2800.	4000.	25.429	
2866.7	4000.	24.405	
2933.3	4000.	66.874	
3000.	4000.	23.856	
3066.7	4000.	25.	
3133.3	4000.	29.381	
3200.	4000.	103.67	
3266.7	4000.	30.778	
3333.3	4000.	28.754	
3400.	4000.	23.154	
3466.7	4000.	60.775	
3533.3	4000.	20.764	
3600.	4000.	20.216	
3666.7	4000.	19.901	
3733.3	4000.	67.858	
3800.	4000.	20.017	
3866.7	4000.	20.801	
3933.3	4000.	51.598	
4000.	4000.	64.401	
4066.7	4000.	44.457	
4133.3	4000.	28.543	
4200.	4000.	29.305	
4266.7	4000.	65.308	
4333.3	4000.	25.172	
4400.	4000.	28.315	
4466.7	4000.	32.424	
4533.3	4000.	65.521	
4600.	4000.	36.715	
4666.7	4000.	25.726	
4733.3	4000.	25.206	
4800.	4000.	70.385	
4866.7	4000.	21.008	
4933.3	4000.	21.155	
5000.	4000.	24.218	
5066.7	4000.	80.602	
5133.3	4000.	23.576	
5200.	4000.	23.228	
5266.7	4000.	24.166	
5333.3	4000.	76.87	
5400.	4000.	29.332	
5466.7	4000.	36.759	
5533.3	4000.	43.146	
5600.	4000.	78.644	
5666.7	4000.	29.327	
5733.3	4000.	29.022	
5800.	4000.	31.531	
5866.7	4000.	75.74	
5933.3	4000.	55.015	
6000.	4000.	35.499	
6066.7	4000.	32.043	
6133.3	4000.	66.138	
6200.	4000.	35.495	
6266.7	4000.	34.805	
6333.3	4000.	40.4	
6400.	4000.	77.885	
6466.7	4000.	39.945	
6533.3	4000.	38.41	
6600.	4000.	49.296	
6666.7	4000.	87.75	
75.	4500.	-3.125	
150.	4500.	3.1	
225.	4500.	6.9775	
300.	4500.	42.367	
375.	4500.	12.703	
450.	4500.	15.342	
525.	4500.	18.174	
600.	4500.	73.858	
675.	4500.	26.226	
750.	4500.	35.233	
825.	4500.	38.733	
900.	4500.	61.203	
975.	4500.	24.557	
1050.	4500.	22.577	
1125.	4500.	21.832	
1200.	4500.	71.686	
1275.	4500.	23.18	
1350.	4500.	25.438	
1425.	4500.	27.795	
1500.	4500.	57.646	
1575.	4500.	36.949	
1650.	4500.	42.852	
1725.	4500.	33.138	
1800.	4500.	75.173	
1875.	4500.	26.859	
1950.	4500.	25.624	
2025.	4500.	25.246	
2100.	4500.	55.708	
2175.	4500.	27.164	
2250.	4500.	29.826	
2325.	4500.	34.567	
2400.	4500.	90.118	
2475.	4500.	40.59	
2550.	4500.	34.214	
2625.	4500.	30.468	
2700.	4500.	76.39	
2775.	4500.	25.727	
2850.	4500.	24.467	
2925.	4500.	23.788	
3000.	4500.	80.937	
3075.	4500.	25.416	
3150.	4500.	32.074	
3225.	4500.	42.338	
3300.	4500.	75.712	
3375.	4500.	24.116	
3450.	4500.	21.964	
3525.	4500.	20.863	
3600.	4500.	78.643	
3675.	4500.	19.892	
3750.	4500.	19.871	
3825.	4500.	20.307	
3900.	4500.	56.39	
3975.	4500.	24.65	
4050.	4500.	35.109	
4125.	4500.	28.708	
4200.	4500.	82.149	
4275.	4500.	24.473	
4350.	4500.	24.547	
4425.	4500.	39.327	
4500.	4500.	71.749	
4575.	4500.	26.565	
4650.	4500.	28.751	
4725.	4500.	23.668	
4800.	4500.	67.218	
4875.	4500.	20.813	
4950.	4500.	21.085	
5025.	4500.	27.064	
5100.	4500.	77.844	
5175.	4500.	22.933	
5250.	4500.	23.943	
5325.	4500.	25.989	
5400.	4500.	76.129	
5475.	4500.	39.038	
5550.	4500.	38.776	
5625.	4500.	31.593	
5700.	4500.	67.463	
5775.	4500.	30.103	
5850.	4500.	34.432	
5925.	4500.	70.524	
6000.	4500.	78.538	
6075.	4500.	31.195	
6150.	4500.	30.914	
6225.	4500.	48.759	
6300.	4500.	72.634	
6375.	4500.	39.234	
6450.	4500.	46.404	
6525.	4500.	37.272	
6600.	4500.	83.07	
6675.	4500.	54.483	
6750.	4500.	39.964	
6825.	4500.	44.671	
6900.	4500.	85.993	
6975.	4500.	44.57	
7050.	4500.	46.781	
7125.	4500.	55.516	
7200.	4500.	134.51	
7275.	4500.	65.312	
7350.	4500.	68.876	
7425.	4500.	56.309	
7500.	4500.	96.899	
83.333	5000.	-5.1953	
166.67	5000.	1.0421	
250.	5000.	4.9476	
333.33	5000.	43.076	
416.67	5000.	10.848	
500.	5000.	13.729	
583.33	5000.	17.092	
666.67	5000.	77.482	
750.	5000.	31.264	
833.33	5000.	32.725	
916.67	5000.	23.65	
1000.	5000.	57.517	
1083.3	5000.	19.752	
1166.7	5000.	20.28	
1250.	5000.	21.738	
1333.3	5000.	74.539	
1416.7	5000.	27.11	
1500.	5000.	32.346	
1583.3	5000.	40.241	
1666.7	5000.	64.552	
1750.	5000.	31.229	
1833.3	5000.	27.668	
1916.7	5000.	25.752	
2000.	5000.	69.976	
2083.3	5000.	25.212	
2166.7	5000.	26.594	
2250.	5000.	29.423	
2333.3	5000.	61.371	
2416.7	5000.	56.501	
2500.	5000.	36.66	
2583.3	5000.	31.677	
2666.7	5000.	89.982	
2750.	5000.	27.044	
2833.3	5000.	25.203	
2916.7	5000.	24.925	
3000.	5000.	70.442	
3083.3	5000.	30.312	
3166.7	5000.	46.98	
3250.	5000.	37.001	
3333.3	5000.	83.269	
3416.7	5000.	25.744	
3500.	5000.	23.694	
3583.3	5000.	22.381	
3666.7	5000.	67.767	
3750.	5000.	20.888	
3833.3	5000.	20.736	
3916.7	5000.	22.733	
4000.	5000.	76.161	
4083.3	5000.	41.492	
4166.7	5000.	45.015	
4250.	5000.	24.943	
4333.3	5000.	58.703	
4416.7	5000.	51.264	
4500.	5000.	23.808	
4583.3	5000.	21.988	
4666.7	5000.	74.283	
4750.	5000.	21.07	
4833.3	5000.	20.991	
4916.7	5000.	21.984	
5000.	5000.	72.095	
5083.3	5000.	32.377	
5166.7	5000.	24.424	
5250.	5000.	25.93	
5333.3	5000.	68.171	
5416.7	5000.	33.899	
5500.	5000.	52.11	
5583.3	5000.	56.86	
5666.7	5000.	61.754	
5750.	5000.	30.467	
5833.3	5000.	33.378	
5916.7	5000.	52.496	
6000.	5000.	76.969	
6083.3	5000.	31.943	
6166.7	5000.	32.666	
6250.	5000.	39.082	
6333.3	5000.	69.458	
6416.7	5000.	45.184	
6500.	5000.	37.082	
6583.3	5000.	86.896	
6666.7	5000.	93.301	
6750.	5000.	39.716	
6833.3	5000.	48.146	
6916.7	5000.	75.925	
7000.	5000.	90.277	
7083.3	5000.	49.739	
7166.7	5000.	54.229	
7250.	5000.	76.28	
7333.3	5000.	121.64	
7416.7	5000.	59.795	
7500.	5000.	59.179	
7583.3	5000.	47.44	
7666.7	5000.	82.849	
7750.	5000.	53.627	
7833.3	5000.	47.617	
7916.7	5000.	49.306	
8000.	5000.	83.052	
8083.3	5000.	55.702	
8166.7	5000.	45.509	
8250.	5000.	38.213	
8333.3	5000.	76.167	
91.667	5500.	-4.1601	
183.33	5500.	2.1357	
275.	5500.	6.1505	
366.67	5500.	44.261	
458.33	5500.	12.546	
550.	5500.	15.987	
641.67	5500.	20.526	
733.33	5500.	83.705	
825.	5500.	35.201	
916.67	5500.	24.031	
1008.3	5500.	20.604	
1100.	5500.	56.243	
1191.7	5500.	20.462	
1283.3	5500.	22.287	
1375.	5500.	24.222	
1466.7	5500.	79.932	
1558.3	5500.	46.79	
1650.	5500.	42.225	
1741.7	5500.	31.378	
1833.3	5500.	54.584	
1925.	5500.	25.292	
2016.7	5500.	24.599	
2108.3	5500.	25.179	
2200.	5500.	68.913	
2291.7	5500.	31.316	
2383.3	5500.	41.459	
2475.	5500.	39.725	
2566.7	5500.	61.304	
2658.3	5500.	43.856	
2750.	5500.	25.973	
2841.7	5500.	24.808	
2933.3	5500.	72.455	
3025.	5500.	27.785	
3116.7	5500.	34.678	
3208.3	5500.	58.567	
3300.	5500.	78.214	
3391.7	5500.	27.342	
3483.3	5500.	24.617	
3575.	5500.	22.986	
3666.7	5500.	74.494	
3758.3	5500.	21.243	
3850.	5500.	21.125	
3941.7	5500.	26.072	
4033.3	5500.	79.093	
4125.	5500.	27.942	
4216.7	5500.	26.758	
4308.3	5500.	34.458	
4400.	5500.	85.304	
4491.7	5500.	26.342	
4583.3	5500.	23.332	
4675.	5500.	21.733	
4766.7	5500.	74.247	
4858.3	5500.	21.657	
4950.	5500.	23.241	
5041.7	5500.	40.016	
5133.3	5500.	76.052	
5225.	5500.	26.017	
5316.7	5500.	28.867	
5408.3	5500.	34.108	
5500.	5500.	88.27	
5591.7	5500.	43.086	
5683.3	5500.	31.812	
5775.	5500.	31.132	
5866.7	5500.	68.407	
5958.3	5500.	42.659	
6050.	5500.	47.915	
6141.7	5500.	32.033	
6233.3	5500.	82.305	
6325.	5500.	58.297	
6416.7	5500.	45.116	
6508.3	5500.	37.75	
6600.	5500.	96.2	
6691.7	5500.	44.877	
6783.3	5500.	41.706	
6875.	5500.	58.868	
6966.7	5500.	87.097	
7058.3	5500.	47.265	
7150.	5500.	58.043	
7241.7	5500.	74.252	
7333.3	5500.	114.15	
7425.	5500.	60.95	
7516.7	5500.	68.048	
7608.3	5500.	71.782	
7700.	5500.	84.493	
7791.7	5500.	63.497	
7883.3	5500.	50.081	
7975.	5500.	42.422	
8066.7	5500.	79.592	
8158.3	5500.	46.13	
8250.	5500.	37.966	
8341.7	5500.	49.794	
8433.3	5500.	75.346	
8525.	5500.	45.804	
8616.7	5500.	41.095	
8708.3	5500.	59.886	
8800.	5500.	86.212	
8891.7	5500.	44.219	
8983.3	5500.	36.297	
9075.	5500.	50.295	
9166.7	5500.	84.56	
100.	6000.	-3.5804	
200.	6000.	2.7575	
300.	6000.	6.8572	
400.	6000.	45.293	
500.	6000.	13.729	
600.	6000.	17.878	
700.	6000.	24.519	
800.	6000.	104.2	
900.	6000.	24.701	
1000.	6000.	20.569	
1100.	6000.	19.768	
1200.	6000.	56.578	
1300.	6000.	23.018	
1400.	6000.	26.167	
1500.	6000.	32.345	
1600.	6000.	97.23	
1700.	6000.	34.968	
1800.	6000.	28.886	
1900.	6000.	26.037	
2000.	6000.	54.313	
2100.	6000.	25.392	
2200.	6000.	27.52	
2300.	6000.	32.201	
2400.	6000.	78.804	
2500.	6000.	36.659	
2600.	6000.	31.391	
2700.	6000.	29.879	
2800.	6000.	57.501	
2900.	6000.	24.871	
3000.	6000.	26.239	
3100.	6000.	31.748	
3200.	6000.	93.576	
3300.	6000.	31.38	
3400.	6000.	26.338	
3500.	6000.	23.693	
3600.	6000.	70.868	
3700.	6000.	21.199	
3800.	6000.	20.735	
3900.	6000.	21.479	
4000.	6000.	72.281	
4100.	6000.	32.594	
4200.	6000.	27.78	
4300.	6000.	26.785	
4400.	6000.	92.242	
4500.	6000.	23.807	
4600.	6000.	31.482	
4700.	6000.	20.59	
4800.	6000.	82.464	
4900.	6000.	21.701	
5000.	6000.	25.679	
5100.	6000.	25.766	
5200.	6000.	64.891	
5300.	6000.	27.453	
5400.	6000.	32.583	
5500.	6000.	52.11	
5600.	6000.	83.563	
5700.	6000.	30.742	
5800.	6000.	35.899	
5900.	6000.	43.653	
6000.	6000.	64.888	
6100.	6000.	31.664	
6200.	6000.	36.155	
6300.	6000.	36.503	
6400.	6000.	74.986	
6500.	6000.	37.082	
6600.	6000.	51.234	
6700.	6000.	41.853	
6800.	6000.	76.144	
6900.	6000.	52.318	
7000.	6000.	54.833	
7100.	6000.	51.44	
7200.	6000.	131.57	
7300.	6000.	76.798	
7400.	6000.	59.573	
7500.	6000.	59.179	
7600.	6000.	88.045	
7700.	6000.	43.828	
7800.	6000.	68.418	
7900.	6000.	56.716	
8000.	6000.	94.754	
8100.	6000.	61.824	
8200.	6000.	41.568	
8300.	6000.	37.543	
8400.	6000.	78.634	
8500.	6000.	37.25	
8600.	6000.	39.282	
8700.	6000.	66.838	
8800.	6000.	84.82	
8900.	6000.	41.694	
9000.	6000.	35.875	
9100.	6000.	40.295	
9200.	6000.	95.185	
9300.	6000.	43.133	
9400.	6000.	36.158	
9500.	6000.	33.804	
9600.	6000.	81.894	
9700.	6000.	51.876	
9800.	6000.	33.974	
9900.	6000.	28.569	
10000	6000.	64.886	
